# rest w.(A)       obs. flux density(ergs/s/cm^2/A)
       4201.2000   1.6038508e-15
       4203.0800   2.1412658e-15
       4204.9500   3.1067311e-15
       4206.8300   3.0618460e-15
       4208.7100   2.9377628e-15
       4210.5800   2.6907355e-15
       4212.4600   2.3109043e-15
       4214.3400   1.5426804e-15
       4216.2100   2.1004185e-15
       4218.0900   2.6055644e-15
       4219.9700   2.3931434e-15
       4221.8400   2.7268916e-15
       4223.7200   3.1364451e-15
       4225.6000   2.8922410e-15
       4227.4700   3.5217885e-15
       4229.3500   4.8908009e-15
       4231.2300   5.9198745e-15
       4233.1000   6.5167090e-15
       4234.9800   5.9623469e-15
       4236.8600   5.0765321e-15
       4238.7300   4.6279240e-15
       4240.6100   4.9130173e-15
       4242.4800   5.6493492e-15
       4244.3600   6.0026832e-15
       4246.2400   5.1368481e-15
       4248.1100   4.2346893e-15
       4249.9900   3.4783862e-15
       4251.8700   3.3483048e-15
       4253.7500   3.1742850e-15
       4255.6200   3.6300556e-15
       4257.5000   3.7790946e-15
       4259.3800   3.2471332e-15
       4261.2500   3.0283120e-15
       4263.1300   3.2518161e-15
       4265.0000   3.4387201e-15
       4266.8800   3.5991521e-15
       4268.7600   3.2657055e-15
       4270.6300   4.0676058e-15
       4272.5100   4.9336253e-15
       4274.3900   4.5736816e-15
       4276.2700   3.9928643e-15
       4278.1400   4.3928008e-15
       4280.0200   4.7548472e-15
       4281.8900   4.9694462e-15
       4283.7700   5.3508104e-15
       4285.6500   5.6276354e-15
       4287.5200   6.1669771e-15
       4289.4000   5.9570861e-15
       4291.2800   6.0022811e-15
       4293.1500   5.8155447e-15
       4295.0300   6.4105446e-15
       4296.9100   6.6180565e-15
       4298.7800   5.9612076e-15
       4300.6600   5.9074846e-15
       4302.5400   5.9467151e-15
       4304.4100   6.0995070e-15
       4306.2900   5.6090213e-15
       4308.1700   5.0561755e-15
       4310.0400   5.4734863e-15
       4311.9200   5.0789364e-15
       4313.8000   4.6647000e-15
       4315.6700   5.7878496e-15
       4317.5500   6.1882469e-15
       4319.4300   5.2689818e-15
       4321.3000   4.5767728e-15
       4323.1800   4.0540766e-15
       4325.0600   3.8499909e-15
       4326.9300   4.9015070e-15
       4328.8100   5.9413369e-15
       4330.6900   5.0955233e-15
       4332.5600   3.4580295e-15
       4334.4400   2.6368198e-15
       4336.3200   2.2309857e-15
       4338.1900   1.1661499e-15
       4340.0700       0.0000000
       4341.9500   3.3272864e-16
       4343.8200   1.0468835e-15
       4345.7000   2.7323116e-15
       4347.5800   5.1579670e-15
       4349.4500   5.9319963e-15
       4351.3300   6.0424247e-15
       4353.2100   6.1991875e-15
       4355.0800   6.7124844e-15
       4356.9600   6.0224116e-15
       4358.8400   4.4244667e-15
       4360.7100   4.3851440e-15
       4362.5900   3.5077986e-15
       4364.4700   2.5325151e-15
       4366.3400   2.7282906e-15
       4368.2200   3.3377747e-15
       4370.1000   3.5947121e-15
       4371.9700   3.2976646e-15
       4373.8500   3.0688661e-15
       4375.7300   2.9227424e-15
       4377.6000   3.2248331e-15
       4379.4800   3.5511171e-15
       4381.3600   4.0642465e-15
       4383.2300   4.8484122e-15
       4385.1100   5.7401079e-15
       4386.9900   5.6838046e-15
       4388.8600   5.0962521e-15
       4390.7400   5.0443720e-15
       4392.6200   5.0571473e-15
       4394.4900   4.7884147e-15
       4396.3700   4.2488049e-15
       4398.2500   3.9558035e-15
       4400.1200   4.0214725e-15
       4402.0000   3.5256923e-15
       4403.8800   3.6041030e-15
       4405.7500   4.4483333e-15
       4407.6300   4.2111242e-15
       4409.5100   4.4088683e-15
       4411.3800   5.7741026e-15
       4413.2600   5.6729226e-15
       4415.1400   5.8187196e-15
       4417.0100   6.3742796e-15
       4418.8900   5.0425960e-15
       4420.7700   4.1514282e-15
       4422.6400   3.1251610e-15
       4424.5200   2.1983565e-15
       4426.4000   2.1538986e-15
       4428.2700   2.2373440e-15
       4430.1500   2.6142683e-15
       4432.0300   2.7291199e-15
       4433.9000   2.0368271e-15
       4435.7800   2.3725439e-15
       4437.6600   3.3743579e-15
       4439.5300   3.6178584e-15
       4441.4100   3.8418650e-15
       4443.2900   3.4294549e-15
       4445.1600   3.5135453e-15
       4447.0400   4.4488862e-15
       4448.9200   4.2601728e-15
       4450.7900   3.6177243e-15
       4452.6700   4.0344907e-15
       4454.5500   4.4007256e-15
       4456.4200   4.4722587e-15
       4458.3000   4.2601476e-15
       4460.1800   4.1427829e-15
       4462.0500   4.3995444e-15
       4463.9300   4.2012893e-15
       4465.8100   3.8161889e-15
       4467.6800   4.0467381e-15
       4469.5600   4.2675950e-15
       4471.4300   4.0037966e-15
       4473.3100   3.8668961e-15
       4475.1900   3.9627398e-15
       4477.0700   4.2622084e-15
       4478.9400   4.3095732e-15
       4480.8200   4.2873903e-15
       4482.7000   4.5897658e-15
       4484.5700   4.8846856e-15
       4486.4500   5.8103592e-15
       4488.3200   6.5884849e-15
       4490.2000   6.5247176e-15
       4492.0800   6.5063799e-15
       4493.9500   5.7007936e-15
       4495.8300   4.7135643e-15
       4497.7100   5.0880340e-15
       4499.5800   5.3090249e-15
       4501.4600   5.6133607e-15
       4503.3400   5.3532063e-15
       4505.2100   5.7099332e-15
       4507.0900   6.2581379e-15
       4508.9700   7.1718154e-15
       4510.8400   8.0691572e-15
       4512.7200   8.5011952e-15
       4514.6000   8.9009558e-15
       4516.4700   8.7217672e-15
       4518.3500   8.3102618e-15
       4520.2300   7.5428254e-15
       4522.1000   7.2560566e-15
       4523.9800   7.7397569e-15
       4525.8600   6.9289600e-15
       4527.7300   6.2826329e-15
       4529.6100   5.8876557e-15
       4531.4900   5.3599332e-15
       4533.3600   4.6811780e-15
       4535.2400   5.2329263e-15
       4537.1200   5.7593084e-15
       4538.9900   5.4406560e-15
       4540.8700   5.3458009e-15
       4542.7500   6.7983676e-15
       4544.6200   8.0708662e-15
       4546.5000   8.0769732e-15
       4548.3800   7.2785913e-15
       4550.2500   7.2135925e-15
       4552.1300   7.6393727e-15
       4554.0100   7.5679821e-15
       4555.8800   7.5230635e-15
       4557.7600   7.0777979e-15
       4559.6400   6.1053795e-15
       4561.5100   6.0189685e-15
       4563.3900   5.9498314e-15
       4565.2700   5.4134887e-15
       4567.1400   4.9578270e-15
       4569.0200   4.7385116e-15
       4570.9000   5.0585965e-15
       4572.7700   4.9924417e-15
       4574.6500   5.6710210e-15
       4576.5300   6.8170823e-15
       4578.4000   7.0375873e-15
       4580.2800   7.6439551e-15
       4582.1600   7.6118368e-15
       4584.0300   8.0620701e-15
       4585.9100   7.9866836e-15
       4587.7900   7.1018992e-15
       4589.6600   5.6936227e-15
       4591.5400   4.4909650e-15
       4593.4200   3.8886937e-15
       4595.2900   3.6735752e-15
       4597.1700   3.3921930e-15
       4599.0500   3.0818676e-15
       4600.9200   3.4964474e-15
       4602.8000   3.5396236e-15
       4604.6800   3.1639642e-15
       4606.5500   2.8698319e-15
       4608.4300   2.9003753e-15
       4610.3100   3.1257642e-15
       4612.1800   3.6197014e-15
       4614.0600   4.2469535e-15
       4617.8100   5.1792284e-15
       4621.5700   6.4976257e-15
       4625.3200   6.4106535e-15
       4627.2000   6.9825490e-15
       4629.0700   7.8265867e-15
       4630.9500   7.7642435e-15
       4632.8300   7.3837421e-15
       4634.7000   6.8950993e-15
       4636.5800   6.6921027e-15
       4638.4600   5.9438501e-15
       4640.3300   4.0666256e-15
       4642.2100   3.1413374e-15
       4644.0900   3.2398032e-15
       4645.9600   2.3388088e-15
       4647.8400   2.3527150e-15
       4649.7200   2.6112358e-15
       4651.5900   3.3879374e-15
       4653.4700   3.8369811e-15
       4655.3500   4.5832400e-15
       4657.2200   4.7190011e-15
       4659.1000   4.5928067e-15
       4660.9800   4.7436636e-15
       4662.8500   4.8994043e-15
       4664.7300   4.6729013e-15
       4666.6100   4.6722646e-15
       4668.4800   4.2239246e-15
       4670.3600   3.6534364e-15
       4672.2400   3.4357797e-15
       4674.1100   2.9223906e-15
       4675.9900   1.3168224e-15
       4677.8700   1.0956724e-15
       4679.7400   1.4056209e-15
       4681.6200   2.0113017e-15
       4683.5000   1.6535528e-15
       4685.3700   1.0018560e-15
       4687.2500   1.3033267e-15
       4689.1300   1.7974733e-15
       4691.0000   1.2556939e-15
       4692.8800   1.0273646e-15
       4694.7500   1.0822018e-15
       4696.6300   1.1523275e-15
       4698.5100   1.3614897e-15
       4700.3900   1.1629414e-15
       4702.2600   1.6405682e-15
       4704.1400   1.4713317e-15
       4706.0200   1.1196898e-15
       4707.8900   1.1947748e-15
       4709.7700   1.4506903e-15
       4711.6400   2.0164453e-15
       4713.5200   1.9218582e-15
       4715.4000   1.0612504e-15
       4717.2700   1.3657788e-15
       4719.1500   1.9602845e-15
       4721.0300   2.2885874e-15
       4722.9000   2.4145640e-15
       4724.7800   2.3613519e-15
       4726.6600   3.0227831e-15
       4728.5400   3.9314845e-15
       4730.4100   3.3933323e-15
       4732.2900   2.8161675e-15
       4734.1600   2.4324242e-15
       4736.0400   2.5743341e-15
       4737.9200   2.3140877e-15
       4739.7900   1.7723417e-15
       4741.6700   1.4618571e-15
       4743.5500   1.1168583e-15
       4745.4200   7.5912205e-16
       4747.3000   8.9904244e-16
       4749.1800   8.5814489e-16
       4751.0500   8.4919803e-16
       4752.9300   1.4615806e-15
       4754.8100   1.2132968e-15
       4756.6800   1.1791681e-15
       4758.5600   1.6541979e-15
       4762.3100   1.9506758e-15
       4766.0700   2.0065853e-15
       4769.8200   2.7122566e-15
       4771.7000   1.9720628e-15
       4773.5700   2.0209690e-15
       4775.4500   2.2570053e-15
       4777.3300   1.9571263e-15
       4779.2000   2.2698811e-15
       4781.0800   2.9021261e-15
       4782.9600   2.7754208e-15
       4784.8300   2.2921645e-15
       4786.7100   1.4956675e-15
       4788.5900   8.0899662e-16
       4790.4600   4.5837342e-16
       4792.3400   1.1597078e-15
       4794.2200   1.7671395e-15
       4796.0900   2.1332404e-15
       4797.9700   2.3442708e-15
       4799.8500   2.5892456e-15
       4801.7200   2.5231075e-15
       4803.6000   2.4430381e-15
       4805.4800   2.3829484e-15
       4807.3500   2.8389619e-15
       4809.2300   3.2085478e-15
       4811.1100   3.7903284e-15
       4812.9800   3.4664486e-15
       4814.8600   3.4454135e-15
       4816.7400   4.3517525e-15
       4818.6100   4.1951405e-15
       4820.4900   3.3297744e-15
       4822.3700   3.5111997e-15
       4824.2400   3.8923461e-15
       4826.1200   3.7921547e-15
       4828.0000   4.3637235e-15
       4829.8700   4.5686050e-15
       4831.7500   3.5195937e-15
       4833.6300   3.3530463e-15
       4835.5000   4.0125089e-15
       4837.3800   3.9937439e-15
       4839.2600   4.1970170e-15
       4841.1300   4.3459303e-15
       4843.0100   4.0668016e-15
       4844.8900   3.2753812e-15
       4846.7600   4.5025004e-15
       4848.6400   6.1248565e-15
       4850.5200   6.4874390e-15
       4852.3900   5.5883882e-15
       4854.2700   4.4339999e-15
       4856.1500   2.2054268e-15
       4858.0200       0.0000000
       4859.9000   1.4344552e-16
       4861.7800   1.0402152e-15
       4863.6500   1.8734547e-15
       4865.5300   2.0534056e-15
       4867.4100   2.1349494e-15
       4869.2800   2.2724110e-15
       4871.1600   1.6208901e-15
       4873.0400   1.9155418e-15
       4874.9100   1.9968426e-15
       4876.7900   1.2214143e-15
       4878.6700   5.2537604e-17
       4880.5400   2.3251791e-17
       4882.4200   9.8167527e-16
       4884.3000   1.8212060e-15
       4886.1700   1.3850967e-15
       4888.0500   1.1090675e-15
       4889.9300   2.3763387e-15
       4891.8000   2.9378549e-15
       4893.6800   2.4942899e-15
       4895.5600   2.0525343e-15
       4897.4300   1.7905538e-15
       4899.3100   2.1970329e-15
       4903.0600   4.0243375e-15
       4906.8200   3.2968687e-15
       4910.5700   4.1852470e-15
       4912.4500   4.0145613e-15
       4914.3200   4.0619428e-15
       4916.2000   3.8859627e-15
       4918.0800   4.0107831e-15
       4919.9500   4.9294366e-15
       4921.8300   6.5883090e-15
       4923.7000   8.0221443e-15
       4925.5800   9.0628873e-15
       4927.4600   8.2858590e-15
       4929.3400   7.3167076e-15
       4931.2100   6.5377693e-15
       4933.0900   6.3625431e-15
       4934.9700   5.8103927e-15
       4936.8400   5.1101918e-15
       4938.7200   4.6875781e-15
       4940.5900   3.9513133e-15
       4942.4700   3.5868292e-15
       4944.3500   3.1689236e-15
       4946.2200   2.5923284e-15
       4948.1000   3.2757749e-15
       4949.9800   3.7604637e-15
       4951.8600   3.7056013e-15
       4953.7300   3.8028775e-15
       4955.6100   3.4683503e-15
       4957.4800   3.2062357e-15
       4959.3600   3.7885776e-15
       4961.2400   3.5770949e-15
       4963.1100   2.8111831e-15
       4964.9900   2.5702126e-15
       4966.8700   3.8625232e-15
       4968.7400   4.5350961e-15
       4970.6200   4.6160451e-15
       4972.5000   5.1692846e-15
       4974.3700   5.5399093e-15
       4976.2500   6.1855326e-15
       4978.1300   6.5785998e-15
       4980.0000   5.8796471e-15
       4981.8800   5.3461527e-15
       4983.7600   6.1650168e-15
       4985.6300   6.9877345e-15
       4987.5100   6.7087733e-15
       4989.3900   7.1602967e-15
       4991.2600   6.5544735e-15
       4993.1400   6.4122787e-15
       4995.0200   7.0198779e-15
       4996.8900   6.9413164e-15
       4998.7700   6.8773731e-15
       5000.6500   6.8139241e-15
       5002.5200   6.7263655e-15
       5004.4000   6.8687446e-15
       5006.2800   6.6407755e-15
       5008.1500   5.6932290e-15
       5010.0300   5.0261348e-15
       5011.9100   4.4068075e-15
       5013.7800   4.3279947e-15
       5015.6600   4.9940333e-15
       5017.5400   5.5317666e-15
       5019.4100   6.1187914e-15
       5021.2900   5.9070909e-15
       5023.1700   5.3907111e-15
       5025.0400   5.1001810e-15
       5026.9200   3.9306132e-15
       5028.8000   2.9902041e-15
       5030.6700   3.0696787e-15
       5032.5500   3.6203129e-15
       5034.4300   3.4028488e-15
       5036.3000   2.2620065e-15
       5038.1800   1.3979473e-15
       5040.0600   8.3837467e-16
       5041.9300   1.2856676e-15
       5043.8100   1.7969875e-15
       5047.5600   1.2880216e-15
       5051.3200   1.1330347e-15
       5055.0700   1.1555359e-15
       5056.9500   1.5607920e-15
       5058.8200   1.3168894e-15
       5060.7000   1.1486080e-15
       5062.5800   1.2613401e-15
       5064.4500   1.0621216e-15
       5066.3300   7.4460686e-16
       5068.2100   4.4456861e-16
       5070.0800   2.2869623e-16
       5071.9600   1.0503014e-16
       5073.8400   2.3201360e-16
       5075.7100   1.2351278e-15
       5077.5900   1.3201314e-15
       5079.4700   5.4898722e-16
       5081.3400   2.8486711e-16
       5083.2200   5.0290501e-16
       5085.1000   7.4193452e-16
       5086.9700   6.8767951e-16
       5088.8500   1.3856998e-15
       5090.7300   1.2013677e-15
       5092.6000   3.5214618e-16
       5094.4800   7.1908065e-16
       5096.3600   1.0757430e-15
       5098.2300   1.0546659e-15
       5100.1100   8.6146227e-16
       5101.9900   1.6882345e-15
       5103.8600   2.2285144e-15
       5105.7400   1.7854939e-15
       5107.6200   1.6742948e-15
       5109.4900   1.4653253e-15
       5111.3700   1.4647053e-15
       5113.2500   1.7094540e-15
       5115.1200   1.8949925e-15
       5117.0000   1.4638425e-15
       5118.8800   1.1511798e-15
       5120.7500   1.6061378e-15
       5122.6300   1.7860217e-15
       5124.5100   1.2301434e-15
       5126.3800   1.8721227e-15
       5128.2600   3.2522349e-15
       5130.1400   3.3427507e-15
       5132.0100   3.3149384e-15
       5133.8900   3.2380356e-15
       5135.7700   3.3523929e-15
       5137.6400   3.5731659e-15
       5139.5200   2.7440900e-15
       5141.4000   2.4504519e-15
       5143.2700   3.5429242e-15
       5145.1500   3.5930786e-15
       5147.0200   2.9358276e-15
       5148.9000   3.3073402e-15
       5150.7800   3.5224587e-15
       5152.6600   2.9145244e-15
       5154.5298   2.2839632e-16
       5156.4102   1.5125979e-15
       5158.2900   2.8377388e-15
       5160.1602   4.3238982e-15
       5162.0400   4.4522371e-15
       5163.9102   3.2102316e-15
       5165.7900   2.6121321e-15
       5167.6700   6.3077897e-15
       5169.5400   7.4686787e-15
       5171.4200   7.1262768e-15
       5173.3000   6.3714481e-15
       5175.1700   5.1199931e-15
       5177.0500   4.2959686e-15
       5178.9300   3.6388014e-15
       5182.6800   2.7383767e-15
       5186.4300   3.4021368e-15
       5195.8200   4.1915383e-15
       5199.5700   4.4559566e-15
       5201.4500   4.6747107e-15
       5203.3200   5.1245922e-15
       5205.2000   3.9455330e-15
       5207.0800   2.5486077e-15
       5208.9500   2.6291463e-15
       5210.8300   2.7843509e-15
       5212.7100   2.5916163e-15
       5214.5800   2.8458815e-15
       5216.4600   2.8145256e-15
       5218.3400   2.4793449e-15
       5220.2100   2.4408098e-15
       5222.0900   2.2177078e-15
       5223.9700   2.9155129e-15
       5225.8400   3.5523151e-15
       5227.7200   4.0421558e-15
       5229.6000   4.4775112e-15
       5231.4700   3.7559986e-15
       5233.3500   3.6790958e-15
       5235.2300   4.6393338e-15
       5237.1000   5.2842284e-15
       5238.9800   4.9742966e-15
       5242.7300   4.8142416e-15
       5246.4900   3.1478800e-15
       5250.2400   4.3930856e-15
       5252.1200   3.6100927e-15
       5253.9900   2.7820304e-15
       5255.8700   3.1816402e-15
       5257.7500   3.3476514e-15
       5259.6201   3.7660178e-15
       5261.5000   3.5748581e-15
       5263.3799   4.1657197e-15
       5265.2500   4.6054061e-15
       5267.1299   4.5609482e-15
       5269.0098   4.6295743e-15
       5270.8799   4.8777828e-15
       5272.7598   5.0161994e-15
       5274.6401   5.1983284e-15
       5276.5098   5.6117941e-15
       5278.3901   5.3984516e-15
       5280.2700   5.8660341e-15
       5282.1401   5.4863370e-15
       5284.0200   4.8475075e-15
       5285.8999   4.3398903e-15
       5287.7700   3.9106503e-15
       5289.6499   3.2591796e-15
       5291.5300   4.5992237e-15
       5293.4000   3.8826453e-15
       5295.2800   2.7952329e-15
       5297.1600   3.7684304e-15
       5299.0300   3.9030941e-15
       5300.9100   3.0756684e-15
       5302.7900   3.2950844e-15
       5304.6600   3.5337260e-15
       5306.5400   3.6566114e-15
       5308.4200   3.9707736e-15
       5310.2900   4.4724094e-15
       5312.1700   4.7305700e-15
       5314.0500   5.4036958e-15
       5315.9200   5.8526390e-15
       5317.8000   6.1069293e-15
       5319.6800   6.9365414e-15
       5321.5500   6.9100777e-15
       5323.4300   5.8416816e-15
       5327.1800   4.5796796e-15
       5336.5700   4.2186972e-15
       5340.3200   4.1134459e-15
       5342.2000   3.5351418e-15
       5344.0700   2.7877939e-15
       5345.9500   2.3254304e-15
       5347.8300   2.7036532e-15
       5349.7000   2.1558673e-15
       5351.5800   2.3239728e-15
       5353.4600   2.1392217e-15
       5355.3300   2.5269526e-15
       5357.2100   2.3982954e-15
       5359.0900   2.1912945e-15
       5360.9600   2.5304711e-15
       5362.8400   2.8648475e-15
       5364.7200   2.8757044e-15
       5366.5900   3.9163217e-15
       5368.4700   4.2103535e-15
       5370.3500   4.6982926e-15
       5372.2200   4.4883513e-15
       5374.1000   3.3773989e-15
       5375.9800   2.0766775e-15
       5377.8500   2.3291164e-15
       5379.7300   2.9620315e-15
       5383.4800   2.3227748e-15
       5387.2400   1.3366178e-15
       5390.9900   6.9045823e-16
       5394.7400   1.6328276e-15
       5396.6200   1.7218020e-15
       5398.4900   1.1777523e-15
       5400.3700   1.6742446e-15
       5402.2500   2.4753155e-15
       5404.1300   1.8478455e-15
       5406.0000   1.1538019e-15
       5407.8800   1.2529462e-15
       5409.7500   1.9570006e-15
       5411.6300   1.6050739e-15
       5413.5100   2.2595520e-15
       5415.3800   2.0406136e-15
       5417.2600   1.4987252e-15
       5419.1400   1.6926074e-15
       5421.0100   2.1074302e-15
       5422.8900   2.7274947e-15
       5424.7700   3.5627698e-15
       5426.6400   3.1353980e-15
       5428.5200   2.6341307e-15
       5430.4000   2.6552999e-15
       5432.2700   2.9289080e-15
       5434.1500   3.7382557e-15
       5436.0300   3.1511052e-15
       5437.9000   2.5662920e-15
       5439.7800   2.8826072e-15
       5441.6600   2.9733408e-15
       5443.5300   2.5300271e-15
       5445.4100   1.3246551e-15
       5447.2900   6.8571589e-16
       5449.1600   1.5064741e-15
       5451.0400   1.6898597e-15
       5452.9200   1.4657274e-15
       5454.7900   7.8705084e-16
       5456.6700   1.0099567e-15
       5458.5500   9.5612477e-16
       5460.4200   4.5931335e-16
       5462.3000   4.7529204e-16
       5464.1800   1.0073514e-15
       5466.0500   5.4343145e-16
       5467.9300   9.9063888e-17
       5471.6800   2.0119803e-16
       5481.0700   1.0894230e-15
       5484.8200   1.8591380e-15
       5486.7000   1.2116130e-15
       5488.5700   1.3284081e-15
       5490.4500   1.1412947e-15
       5492.3300   4.9811576e-16
       5494.2000   7.2721828e-16
       5496.0800   1.3849794e-15
       5497.9600   9.1632463e-16
       5499.8300   8.0649016e-16
       5501.7100   1.3297233e-15
       5503.5900   1.6415650e-15
       5505.4600   2.4635706e-15
       5507.3400   2.2438280e-15
       5509.2200   1.1954617e-15
       5511.0900   1.1250177e-15
       5512.9700   1.7933769e-15
       5514.8500   1.6270725e-15
       5516.7200   8.4286486e-16
       5518.6000   1.1952858e-15
       5520.4800   1.5445318e-15
       5522.3500   1.4027307e-15
       5524.2300   1.7154939e-15
       5527.9800   1.9236761e-15
       5531.7400   2.1913615e-15
       5535.4900   4.0772312e-15
       5537.3700   3.4780343e-15
       5539.2400   3.3278225e-15
       5541.1200   3.5712895e-15
       5543.0000   3.4415432e-15
       5544.8700   2.1421956e-15
       5546.7500   2.5305465e-15
       5548.6300   2.2854125e-15
       5550.5000   2.0567648e-15
       5552.3800   7.6642782e-16
       5554.2600   7.1426711e-16
       5556.1300   1.0684464e-15
       5558.0100   3.0452927e-16
       5559.8900   3.1313015e-16
       5561.7600   3.4405966e-16
       5563.6400       0.0000000
       5565.5200   3.5840815e-16
       5567.3900   1.7385648e-15
       5569.2700   1.5630789e-15
       5571.1500   8.6829807e-16
       5573.0200   1.9409750e-16
       5574.9000   1.2833806e-16
       5576.7800   2.7816031e-16
       5578.6500   5.7214351e-16
       5580.5300   8.3715914e-16
       5582.4100   1.6679365e-16
       5584.2800       0.0000000
       5586.1600       0.0000000
       5588.0400       0.0000000
       5589.9100       0.0000000
       5591.7900   2.7088387e-16
       5593.6700   1.0711690e-15
       5595.5400   3.6629780e-17
       5597.4200   3.9001956e-16
       5599.3000   6.8725227e-16
